# 361 data with intensity information, current angle: -51.9864
6 0 6 8496
5.99977 0.0523592 6 8496
5.99909 0.104714 6 8496
6.9976 0.183239 7 8506
5.99634 0.209397 6 8496
5.99429 0.261716 6 8496
6.99041 0.366352 7 8486
6.98694 0.42734 7 8486
6.98295 0.488295 7 8486
7.97534 0.627673 8 8477
7.96956 0.697246 8 8477
6.96777 0.67092 7 8458
6.96165 0.731699 7 8458
6.955 0.792422 7 8448
6.94782 0.853085 7 8438
6.94011 0.913683 7 8429
5.94161 0.835039 6 8409
6.92311 1.03467 7 8409
6.91382 1.09504 7 8390
6.904 1.15533 7 8371
6.89365 1.21554 7 8352
6.88278 1.27565 7 8362
6.87139 1.33566 7 8333
7.8394 1.59494 8 8343
6.84703 1.45538 7 8324
7.81037 1.73152 8 8305
7.79496 1.79961 8 8287
7.77896 1.86756 8 8250
7.76237 1.93538 8 8204
8.71333 2.25342 9 8143
8.69333 2.32937 9 8077
39.5088 10.9568 41 9551
6.72883 1.92946 7 7769
6.71174 1.98811 7 7668
6.69413 2.0466 7 7430
6.67602 2.10494 7 7392
6.6574 2.16312 7 7244
6.63827 2.22113 7 7235
10.4007 3.58125 11 7136
8.48377 3.00426 9 7216
769.608 280.114 819 32767
9.36672 3.50207 10 7107
94.2916 36.1952 101 8362
93.0418 36.6501 100 8371
89.9368 36.3368 97 8400
87.7686 36.3549 95 8429
84.6864 35.9473 92 8448
83.4525 36.2862 91 8448
81.3055 36.1996 89 8486
80.0766 36.493 88 8477
77.9425 36.3452 86 8486
75.8172 36.1629 84 8477
75.4987 36.8232 84 8477
73.3846 36.5882 82 8467
72.1715 36.7732 81 8477
70.0739 36.4781 79 8477
68.8699 36.6188 78 8486
67.6689 36.7412 77 8486
65.5965 36.3607 75 8496
64.4063 36.4393 74 8486
63.2199 36.5 73 8486
62.0373 36.5428 72 8486
60.8589 36.5677 71 8486
58.8322 36.0524 69 8496
57.6673 36.0345 68 8496
56.5072 35.9991 67 8496
56.1909 36.4908 67 8496
54.2026 35.8759 65 8486
53.0584 35.7883 64 8496
52.7441 36.25 64 8486
50.7874 35.5617 62 8496
50.4752 36.0036 62 8486
49.35 35.8549 61 8486
48.2314 35.6894 60 8496
47.9181 36.1089 60 8506
46.8078 35.9169 59 8496
45.7046 35.7084 58 8486
44.6087 35.4833 57 8486
44.2973 35.8713 57 8486
43.211 35.6204 56 8496
42.8985 35.9961 56 8496
41.8223 35.7196 55 8496
40.7543 35.4272 54 8486
40.4436 35.7815 54 8496
40.1298 36.1331 54 8506
39.0757 35.8063 53 8496
38.0304 35.4639 52 8515
37.7195 35.7944 52 8515
36.6863 35.4276 51 8515
35.6625 35.0455 50 8506
35.3553 35.3553 50 8515
35.0455 35.6625 50 8525
34.0383 35.2477 49 8515
33.7294 35.5433 49 8525
32.7359 35.105 48 8515
32.4283 35.3893 48 8544
31.4491 34.9278 47 8553
31.1431 35.2009 47 8544
30.8348 35.4714 47 8544
29.8746 34.9787 46 8544
29.5682 35.238 46 8534
28.6235 34.7231 45 8525
28.9487 35.7487 46 8534
28.6357 36 46 8534
27.7048 35.4605 45 8515
27.3943 35.7009 45 8515
26.4799 35.14 44 8515
26.1722 35.3697 44 8515
25.8626 35.5967 44 8506
24.9702 35.007 43 8496
25.2374 36.0427 44 8506
23.7891 34.6133 42 8496
24.0453 35.6486 43 8486
23.7333 35.8571 43 8477
23.4195 36.0628 43 8477
23.1039 36.2658 43 8477
22.2566 35.618 42 8467
21.9449 35.8109 42 8467
21.6316 36.001 42 8486
20.8091 35.3268 41 8467
20.5 35.507 41 8477
20.1894 35.6846 41 8486
19.8772 35.8594 41 8486
19.5635 36.0315 41 8477
18.3094 34.435 39 8467
18.0082 34.5934 39 8486
18.1596 35.6403 40 8477
17.4017 34.9024 39 8506
16.6581 34.1542 38 8515
16.7899 35.2008 39 8506
16.4821 35.346 39 8506
15.7583 34.5785 38 8486
15.8627 35.6283 39 8496
15.5512 35.7653 39 8486
14.8478 34.9792 38 8486
14.542 35.1074 38 8486
13.8604 34.3058 37 8486
13.927 35.3559 38 8496
13.618 35.4761 38 8496
13.3079 35.5935 38 8477
12.6547 34.7686 37 8486
12.6847 35.8204 38 8486
12.3716 35.9297 38 8486
12.0576 36.0363 38 8486
11.4336 35.1891 37 8486
11.4268 36.2412 38 8496
10.5254 34.427 36 8486
10.5086 35.4763 37 8496
10.1986 35.5667 37 8496
9.62058 34.6907 36 8486
9.31749 34.7733 36 8486
9.01368 34.8533 36 8486
8.70919 34.9306 36 8506
8.17059 34.0329 35 8486
8.09824 35.0773 36 8486
7.79183 35.1467 36 8496
7.27691 34.2352 35 8486
6.97788 34.2974 35 8486
6.86912 35.3386 36 8477
6.37824 34.4139 35 8486
6.07769 34.4683 35 8486
5.94171 35.5063 36 8486
5.47521 34.5691 35 8486
5.32114 35.6046 36 8496
4.87106 34.6594 35 8486
4.56842 34.7006 35 8486
4.26543 34.7391 35 8486
4.07532 35.7686 36 8467
3.76302 35.8028 36 8477
3.45045 35.8343 36 8467
3.05045 34.8668 35 8458
2.74607 34.8921 35 8486
2.44148 34.9147 35 8486
2.1367 34.9347 35 8496
1.83176 34.952 35 8515
1.48306 33.9676 34 8506
1.22148 34.9787 35 8506
0.916193 34.988 35 8486
0.610834 34.9947 35 8496
0.305429 34.9987 35 8486
2.20429e-15 36 36 8477
-0.305429 34.9987 35 8486
-0.628287 35.9945 36 8477
-0.916193 34.988 35 8467
-1.22148 34.9787 35 8477
-1.52668 34.9667 35 8486
-1.88409 35.9507 36 8477
-2.19775 35.9329 36 8467
-2.44148 34.9147 35 8477
-2.74607 34.8921 35 8477
-3.05045 34.8668 35 8486
-3.45045 35.8343 36 8496
-3.6585 34.8083 35 8486
-3.96211 34.775 35 8477
-4.26543 34.7391 35 8486
-4.69894 35.692 36 8467
-5.01023 35.6497 36 8467
-5.32114 35.6046 36 8467
-5.63164 35.5568 36 8467
-5.94171 35.5063 36 8467
-6.07769 34.4683 35 8486
-6.37824 34.4139 35 8477
-6.67831 34.357 35 8477
-7.17725 35.2773 36 8477
-7.48482 35.2133 36 8467
-7.79183 35.1467 36 8477
-8.09824 35.0773 36 8477
-8.40403 35.0053 36 8477
-8.70919 34.9306 36 8477
-9.01368 34.8533 36 8477
-9.5763 35.7393 37 8467
-9.62058 34.6907 36 8477
-10.1986 35.5667 37 8477
-10.5086 35.4763 37 8467
-10.8178 35.3833 37 8467
-11.4268 36.2412 38 8467
-11.4336 35.1891 37 8486
-11.7403 35.088 37 8486
-12.046 34.9842 37 8486
-12.6847 35.8204 38 8496
-12.9968 35.7083 38 8486
-13.3079 35.5935 38 8486
-13.618 35.4761 38 8486
-14.2935 36.2863 39 8496
-14.6097 36.1602 39 8506
-14.9247 36.0313 39 8477
-15.6292 36.8202 40 8477
-15.5512 35.7653 39 8496
-15.8627 35.6283 39 8486
-16.5877 36.3985 40 8477
-16.4821 35.346 39 8496
-16.7899 35.2008 39 8496
-17.0965 35.053 39 8496
-17.4017 34.9024 39 8496
-18.1596 35.6403 40 8496
-18.4699 35.4804 40 8486
-18.7789 35.3179 40 8496
-19.5635 36.0315 41 8496
-19.8772 35.8594 41 8486
-20.1894 35.6846 41 8486
-21 36.3731 42 8486
-21.3166 36.1884 42 8486
-21.6316 36.001 42 8496
-22.4674 36.6635 43 8486
-22.7865 36.4661 43 8486
-22.5666 35.4224 42 8496
-23.4195 36.0628 43 8506
-23.7333 35.8571 43 8496
-24.6045 36.4777 44 8477
-24.9219 36.2616 44 8448
-25.8109 36.8618 45 8486
-26.1316 36.6352 45 8486
-25.8626 35.5967 44 8496
-26.767 36.1736 45 8486
-27.6835 36.7372 46 8486
-28.003 36.4943 46 8496
-28.3204 36.2485 46 8515
-29.2582 36.7826 47 8515
-29.5781 36.5259 47 8506
-29.8957 36.2664 47 8515
-30.211 36.0041 47 8534
-31.1735 36.4995 48 8525
-31.4908 36.2261 48 8515
-31.8058 35.9499 48 8515
-32.1183 35.671 48 8515
-33.1039 36.1266 49 8515
-33.4179 35.8363 49 8515
-34.4177 36.2687 50 8506
-34.7329 35.967 50 8506
-35.7464 36.3758 51 8496
-36.7696 36.7696 52 8506
-37.089 36.4473 52 8496
-38.125 36.8169 53 8496
-39.1702 37.1711 54 8506
-39.4931 36.8279 54 8515
-40.5503 37.1575 55 8515
-40.873 36.8022 55 8506
-41.9415 37.1067 56 8506
-42.2637 36.7393 56 8477
-43.3431 37.0185 57 8525
-44.4306 37.2817 58 8525
-44.7542 36.8925 58 8525
-45.8516 37.1299 59 8525
-46.1739 36.7284 59 8515
-47.2806 36.9397 60 8515
-48.3946 37.1344 61 8496
-49.5154 37.3125 62 8506
-50.643 37.4738 63 8506
-50.9681 37.0305 63 8496
-52.1034 37.165 64 8496
-54.064 37.856 66 8496
-55.2165 37.9492 67 8506
-55.5455 37.4659 67 8496
-56.7042 37.5317 68 8496
-57.8683 37.5801 69 8496
-59.8808 38.1483 71 8506
-60.2114 37.6243 71 8609
-59.6848 36.5749 70 8747
-58.2874 35.0226 68 8810
-58.5908 34.5126 68 8845
-58.0237 33.5 67 8872
-57.4435 32.5 66 8899
-56.8503 31.5126 65 8899
-56.2443 30.5382 64 8890
-55.6257 29.5767 63 8890
-54.9947 28.6284 62 8926
-53.4604 27.2394 60 8908
-53.6961 26.7719 60 8908
-53.0288 25.8639 59 8908
-52.3499 24.9696 58 8899
-51.6595 24.0892 57 8890
-51.8678 23.6375 57 8908
-52.0721 23.184 57 8908
-51.3554 22.3299 56 8881
-50.6278 21.4902 55 8917
-49.8895 20.6649 54 8864
-50.0679 20.2288 54 8828
-49.3121 19.4246 53 8765
-49.4798 18.9935 53 8674
-46.8336 17.5104 50 8591
-46.0449 16.759 49 8572
-45.2468 16.0227 48 8563
-44.4394 15.3017 47 8563
-44.5712 14.9133 47 8572
-44.6997 14.5238 47 8563
-42.9173 13.5318 45 8563
-40.1648 12.2796 42 8609
-37.394 11.0766 39 8647
-33.6442 9.64731 35 8693
-29.8725 8.28439 31 8711
-27.0459 7.24693 28 8683
-23.2355 6.00912 24 8609
-19.4059 4.83844 20 8544
-13.6132 3.26824 14 8381
-8.76933 2.02456 9 8315
-6.83407 1.51508 7 8305
-7.82518 1.66329 8 8305
-7.8394 1.59494 8 8305
-7.85302 1.52647 8 8324
-7.86604 1.45788 8 8324
-7.87846 1.38919 8 8324
-7.89028 1.32038 8 8352
-6.91382 1.09504 7 8362
-7.91213 1.18248 8 8371
-7.92214 1.11338 8 8371
-6.94011 0.913683 7 8390
-6.94782 0.853085 7 8390
-7.94857 0.905626 8 8400
-6.96165 0.731699 7 8419
-6.96777 0.67092 7 8419
-6.97336 0.61009 7 8419
-7.97534 0.627673 8 8429
-6.98295 0.488295 7 8438
-6.98694 0.42734 7 8438
-7.98904 0.418688 8 8438
-6.99334 0.305336 7 8448
-6.99574 0.244296 7 8448
-6.9976 0.183239 7 8458
-6.99893 0.122167 7 8458
-7.9997 0.0698123 8 8458
-8 9.79685e-16 8 8458
