# 361 data with intensity information, current angle: -51.0635
9 0 9 8496
8.99966 0.0785388 9 8496
8.99863 0.157072 9 8496
9.99657 0.261769 10 8496
9.99391 0.348995 10 8496
8.99143 0.392574 9 8476
8.98767 0.471024 9 8486
9.98135 0.610485 10 8476
9.97564 0.697565 10 8476
8.97226 0.706132 9 8457
9.96195 0.871557 10 8457
9.95396 0.958458 10 8447
8.9507 0.940756 9 8428
9.93572 1.13203 10 8428
8.93292 1.09682 9 8418
9.91445 1.30526 10 8409
9.90268 1.39173 10 8399
8.90114 1.33028 9 8390
9.87688 1.56434 10 8381
8.87657 1.48543 9 8362
9.84808 1.73648 10 8352
9.83255 1.82236 10 8343
19.6325 3.81618 20 8804
22.5383 4.58546 23 9177
25.4318 5.4057 26 9334
26.36 5.84387 27 9382
30.2055 6.97348 31 9612
35.0053 8.40403 36 9831
37.8415 9.43495 39 9975
42.5985 11.0167 44 10088
50.2281 13.4586 52 10233
57.8178 16.0343 60 10251
60.5595 17.3652 63 10307
68.0762 20.1651 71 10279
68.8539 21.0508 72 9975
9.53717 3.00706 10 7241
99.8609 32.4468 105 8223
11.3799 3.80766 12 7160
12.2917 4.23239 13 7113
99.92 35.3835 106 8002
99.6074 36.2541 106 8067
99.2873 37.122 106 8223
98.9595 37.987 106 8399
96.7634 38.1161 104 8428
93.6456 37.8353 101 8438
92.388 38.2683 100 8447
90.2095 38.2917 98 8457
88.0378 38.2799 96 8466
85.8733 38.2332 94 8476
84.6264 38.5665 93 8496
83.3803 38.8809 92 8496
81.2327 38.746 90 8496
79.9927 39.015 89 8496
79.6492 39.7116 89 8505
78.4086 39.9512 88 8505
76.2829 39.7104 86 8515
75.0505 39.9051 85 8525
73.8206 40.0813 84 8525
72.5934 40.2392 83 8515
70.4988 39.8863 81 8525
68.416 39.5 79 8525
68.0687 40.0955 79 8534
65.1447 39.1429 76 8515
63.948 39.1874 75 8525
63.6036 39.7439 75 8525
61.5676 39.2229 73 8525
60.3843 39.214 72 8525
59.2059 39.1875 71 8515
58.0326 39.1435 70 8515
56.8647 39.082 69 8525
55.7023 39.0032 68 8525
54.5457 38.9071 67 8515
54.2041 39.3816 67 8534
52.2507 38.6635 65 8515
51.9113 39.118 65 8515
50.7746 38.9607 64 8515
50.4327 39.4023 64 8505
49.3043 39.2184 63 8505
48.183 39.0179 62 8505
47.0691 38.8008 61 8515
45.9627 38.5673 60 8505
45.6244 38.9669 60 8515
44.5279 38.7075 59 8505
43.4394 38.432 58 8496
43.1024 38.8096 58 8505
41.2875 37.8331 56 8505
41.6872 38.8739 57 8496
40.621 38.5479 56 8505
40.283 38.9009 56 8496
39.2288 38.55 55 8496
38.8909 38.8909 55 8505
37.8491 38.5155 54 8505
37.5116 38.8443 54 8505
36.4828 38.4448 53 8496
35.4639 38.0304 52 8515
35.8063 39.0757 53 8505
34.1257 37.9004 51 8515
33.7936 38.1967 51 8515
33.459 38.4902 51 8496
33.1219 38.7807 51 8505
32.7822 39.0683 51 8496
31.8039 38.5812 50 8496
31.466 38.8573 50 8505
30.5032 38.3478 49 8525
30.1674 38.6125 49 8515
29.8293 38.8743 49 8496
28.8871 38.3345 48 8486
28.5515 38.5851 48 8496
28.2137 38.8328 48 8505
27.8737 39.0775 48 8496
26.9581 38.5001 47 8496
26.6211 38.7339 47 8496
25.7229 38.1357 46 8476
25.3891 38.3587 46 8466
25.0534 38.5788 46 8476
24.7158 38.796 46 8466
23.8464 38.1622 45 8476
24.0349 39.2214 46 8476
23.1767 38.5725 45 8486
22.8392 38.7733 45 8466
22 38.1051 44 8457
22.1591 39.166 45 8466
21.3316 38.4833 44 8496
20.995 38.668 44 8486
20.6567 38.8497 44 8486
19.8552 38.1415 43 8476
19.9756 39.2043 44 8476
19.6327 39.3771 44 8476
18.85 38.6481 43 8486
18.512 38.8112 43 8466
18.1726 38.9712 43 8486
17.4171 38.2184 42 8476
17.0829 38.3689 42 8505
16.7475 38.5165 42 8496
16.4107 38.6612 42 8486
16.0727 38.8029 42 8486
15.7335 38.9417 42 8476
15.3931 39.0775 42 8466
15.0515 39.2104 42 8466
14.7087 39.3402 42 8466
14.3648 39.4671 42 8476
14.0199 39.5909 42 8457
13.6739 39.7118 42 8447
13.0095 38.8813 41 8438
12.6697 38.9933 41 8476
12.0282 38.1487 40 8496
11.6949 38.2522 40 8496
11.6446 39.3116 41 8476
11.0255 38.4505 40 8466
10.6895 38.5452 40 8486
10.3528 38.637 40 8466
10.0152 38.7259 40 8486
9.67688 38.8118 40 8476
9.33781 38.8948 40 8486
8.99804 38.9748 40 8476
8.65758 39.0518 40 8486
8.31647 39.1259 40 8486
7.97472 39.197 40 8457
7.44155 38.2835 39 8466
7.10719 38.3469 39 8466
6.77228 38.4075 39 8457
6.43686 38.4651 39 8438
6.10094 38.5198 39 8438
5.76457 38.5716 39 8466
5.56692 39.6107 40 8476
5.09052 38.6663 39 8476
4.87477 39.7018 40 8476
4.41493 38.7493 39 8457
4.18114 39.7809 40 8457
3.73798 38.8205 39 8466
3.39907 38.8516 39 8438
3.0599 38.8798 39 8466
2.7205 38.905 39 8476
2.38089 38.9273 39 8476
1.98877 37.9479 38 8486
1.70116 38.9629 39 8486
1.36108 38.9762 39 8476
0.994724 37.987 38 8466
0.663191 37.9942 38 8457
0.340335 38.9985 39 8457
2.38798e-15 39 39 8457
-0.331608 37.9986 38 8457
-0.680644 38.9941 39 8457
-1.0209 38.9866 39 8438
-1.32618 37.9769 38 8466
-1.70116 38.9629 39 8457
-2.0411 38.9466 39 8457
-2.38089 38.9273 39 8476
-2.65075 37.9074 38 8466
-3.0599 38.8798 39 8466
-3.39907 38.8516 39 8486
-3.73798 38.8205 39 8466
-4.07661 38.7864 39 8466
-4.41493 38.7493 39 8466
-4.7529 38.7093 39 8466
-5.09052 38.6663 39 8476
-5.42775 38.6205 39 8466
-5.76457 38.5716 39 8476
-6.10094 38.5198 39 8466
-6.43686 38.4651 39 8476
-6.77228 38.4075 39 8486
-7.10719 38.3469 39 8457
-7.44155 38.2835 39 8466
-7.77535 38.2171 39 8457
-8.10856 38.1478 39 8466
-8.65758 39.0518 40 8457
-8.99804 38.9748 40 8457
-9.10437 37.9224 39 8466
-9.43495 37.8415 39 8466
-9.76482 37.7578 39 8466
-10.0939 37.6711 39 8438
-10.6895 38.5452 40 8457
-11.3011 39.4117 41 8457
-11.3606 38.3528 40 8457
-11.6949 38.2522 40 8466
-12.0282 38.1487 40 8466
-12.9787 39.9444 42 8476
-12.6922 37.9329 40 8466
-13.3483 38.7663 41 8466
-13.6861 38.6483 41 8466
-14.3648 39.4671 42 8466
-14.7087 39.3402 42 8466
-15.4098 40.144 43 8457
-15.3931 39.0775 42 8438
-16.1081 39.8689 43 8457
-16.4554 39.7268 43 8486
-16.8014 39.5817 43 8486
-17.1462 39.4336 43 8486
-17.4897 39.2825 43 8486
-17.8318 39.1283 43 8466
-18.1726 38.9712 43 8476
-18.9425 39.7138 44 8486
-19.2883 39.5469 44 8486
-19.6327 39.3771 44 8496
-19.9756 39.2043 44 8486
-20.7787 39.9155 45 8486
-21.1262 39.7326 45 8486
-21.4721 39.5468 45 8486
-21.8164 39.3579 45 8476
-22.1591 39.166 45 8486
-22.5 38.9711 45 8505
-23.3468 39.6349 46 8496
-23.6918 39.4297 46 8486
-24.0349 39.2214 46 8486
-24.3763 39.0102 46 8486
-25.2531 39.6394 47 8496
-25.598 39.4175 47 8486
-25.941 39.1926 47 8476
-26.2821 38.9648 47 8486
-27.1875 39.5581 48 8476
-27.5317 39.3193 48 8496
-27.8737 39.0775 48 8486
-28.8015 39.6418 49 8496
-29.1463 39.389 49 8505
-29.4889 39.1331 49 8486
-30.4381 39.6677 50 8505
-30.7831 39.4005 50 8476
-31.1257 39.1304 50 8486
-32.0953 39.6344 51 8476
-32.44 39.3529 51 8496
-32.7822 39.0683 51 8496
-33.1219 38.7807 51 8505
-34.1151 39.2449 52 8505
-35.1189 39.6947 53 8496
-35.4639 39.3867 53 8505
-35.8063 39.0757 53 8496
-36.8279 39.4931 54 8505
-37.1711 39.1702 54 8515
-37.5116 38.8443 54 8505
-39.2509 39.942 56 8505
-38.8909 38.8909 55 8496
-39.942 39.2509 56 8505
-41.0024 39.5955 57 8486
-41.3463 39.2362 57 8515
-41.6872 38.8739 57 8505
-42.0248 38.5086 57 8505
-43.1024 38.8096 58 8505
-44.1884 39.0946 59 8515
-45.2826 39.3635 60 8515
-46.3848 39.6163 61 8496
-46.7287 39.21 61 8505
-47.0691 38.8008 61 8505
-48.183 39.0179 62 8515
-49.3043 39.2184 63 8515
-50.4327 39.4023 64 8515
-51.568 39.5695 65 8515
-52.7099 39.7198 66 8505
-53.8584 39.8531 67 8515
-54.2041 39.3816 67 8496
-55.3599 39.4878 68 8486
-56.5215 39.5768 69 8496
-57.6888 39.6484 70 8496
-58.0326 39.1435 70 8505
-60.0398 39.7395 72 8505
-60.3843 39.214 72 8505
-62.411 39.7602 74 8496
-63.6036 39.7439 75 8496
-64.8007 39.7099 76 8496
-66.0019 39.6579 77 8496
-68.0687 40.0955 79 8496
-69.282 40 80 8496
-70.4988 39.8863 81 8496
-71.7188 39.7544 82 8486
-73.8206 40.0813 84 8476
-75.0505 39.9051 85 8466
-77.1699 40.1721 87 8476
-78.4086 39.9512 88 8476
-79.6492 39.7116 89 8457
-81.7903 39.8918 91 8466
-84.843 40.468 94 8466
-87.0055 40.5714 96 8438
-89.1762 40.6399 98 8447
-90.441 40.2669 99 8438
-93.5401 40.6724 102 8428
-96.653 41.0268 105 8428
-98.8551 40.9471 107 8409
-101.063 40.8321 109 8409
-104.207 41.0481 112 8381
-106.428 40.8539 114 8362
-108.654 40.6241 116 8315
-111.823 40.7004 119 8296
-115.002 40.7244 122 8306
-118.19 40.696 125 8269
-121.385 40.615 128 8269
-125.539 40.7902 132 8371
-124.937 39.3925 131 8250
-125.276 38.3007 131 8105
-8.62938 2.55614 9 7222
-9.61262 2.75637 10 7590
-8.67267 2.40515 9 7831
-35.7393 9.5763 37 9297
-36.7896 9.51444 38 9822
-32.9901 8.22534 34 9593
-26.254 6.30302 27 9049
-23.3849 5.39883 24 8676
-17.5733 3.89591 18 8466
-10.7596 2.28703 11 8343
-9.79925 1.99368 10 8306
-9.81627 1.90809 10 8306
-19.6651 3.64471 20 8563
-20.681 3.64661 21 8667
-19.7257 3.30095 20 8611
-19.7538 3.12869 20 8749
-19.7803 2.95619 20 8695
-18.8151 2.64429 19 8629
-17.846 2.34947 18 8592
-14.8882 1.82804 15 8515
-13.91 1.58484 14 8476
-11.9343 1.25434 12 8457
-10.9494 1.0543 11 8438
-10.9581 0.958713 11 8438
-8.97226 0.706132 9 8418
-9.97564 0.697565 10 8438
-9.98135 0.610485 10 8438
-8.98767 0.471024 9 8428
-9.99048 0.436194 10 8438
-9.99391 0.348995 10 8447
-10.9962 0.287946 11 8447
-9.99848 0.174524 10 8447
-9.99962 0.0872654 10 8447
-10 1.22461e-15 10 8457
